 Number of surface minima:    59
   #       a.u.         eV      kcal/mol           X/Y/Z coordinate(Angstrom)
     1  0.13315590    3.623356   83.556656      -7.157329  -0.108253  -1.314117
     2  0.12301210    3.347330   77.191325      -6.811262  -1.964856  -1.156330
     3  0.11427906    3.109691   71.711255      -6.274495  -0.891667  -0.724628
     4  0.12963436    3.527530   81.346860      -6.280168   0.134164  -3.307696
     5  0.11945081    3.250422   74.956576      -5.985256  -1.961127  -3.265810
     6  0.12167114    3.310840   76.349856      -5.877612   0.247537  -0.562619
     7  0.11318417    3.079898   71.024201      -5.772262  -1.857605  -0.565649
     8  0.10904904    2.967375   68.429364      -5.435822  -0.885658  -3.243294
     9  0.10680603    2.906340   67.021854      -4.836208  -1.720915  -3.057190
    10  0.11464990    3.119782   71.943960      -4.947243   0.271603  -3.037372
    11  0.12571998    3.421015   78.890545      -4.909452   0.310997  -0.213662
    12  0.15092187    4.106793   94.704983      -4.883764   3.947826   0.008826
    13  0.12526273    3.408572   78.603616      -4.543377  -1.709093  -0.133078
    14  0.13308021    3.621297   83.509164      -4.139432  -0.652673   0.036418
    15  0.13919043    3.787564   87.343386      -4.053681   2.979926  -0.058325
    16  0.14110724    3.839723   88.546203      -3.998583   4.953001   1.782456
    17  0.11453313    3.116605   71.870683      -3.923405   0.391954  -2.679258
    18  0.11700576    3.183889   73.422283      -3.587499  -1.550650  -2.586648
    19  0.14251029    3.877902   89.426631      -3.711879   3.993285  -0.868210
    20  0.14824521    4.033957   93.025353      -3.456402   0.432133   3.075673
    21  0.14631686    3.981484   91.815290      -3.339973   5.184198  -1.544064
    22  0.12080008    3.287137   75.803256      -3.231726  -0.554864  -2.431165
    23  0.10272253    2.795222   64.459413      -2.983383  -1.742161   1.188541
    24  0.12528935    3.409297   78.620320      -2.987980   4.353997   1.977776
    25  0.04655539    1.266837   29.213975      -2.674781  -3.699932   3.108802
    26  0.13199157    3.591673   82.826032      -2.727526   4.180428  -1.503709
    27  0.13202606    3.592612   82.847672      -2.775698   5.222931   1.258620
    28  0.14183861    3.859625   89.005145      -2.635202   6.289487   0.208467
    29  0.12455977    3.389444   78.162502      -2.241660  -0.921752   2.057246
    30  0.12548935    3.414739   78.745819      -1.641757  -1.182249   2.393678
    31  0.12361752    3.363804   77.571232      -1.668343   0.257714   3.669325
    32  0.12613373    3.432273   79.150175      -1.715801   5.489062   0.598691
    33  0.06527285    1.776165   40.959364      -1.267753  -2.128901   3.172888
    34  0.03047548    0.829280   19.123671      -1.084982  -4.038523   1.390061
    35  0.15635298    4.254581   98.113057      -1.191598   3.631968   1.519777
    36  0.16028628    4.361612  100.581244      -0.874221   2.462843  -1.236880
    37  0.07512801    2.044337   47.143580      -0.718134  -0.392575  -1.123973
    38  0.14401296    3.918792   90.369573       0.001542   1.517751  -1.123617
    39  0.16126942    4.388364  101.198171      -0.034698   3.848013   0.805697
    40  0.02415436    0.657274   15.157103       0.579137  -3.314250  -2.279298
    41  0.15983740    4.349397  100.299564       0.843607   2.906241   1.021447
    42  0.03002441    0.817006   18.840617       0.893355  -1.446544  -1.974084
*   43 -0.00487422   -0.132634   -3.058623       1.127746  -4.604720   0.123150
    44  0.01821252    0.495588   11.428541       1.168456  -0.237974   2.536900
    45  0.01269312    0.345397    7.965057       2.070728  -2.104024   3.065547
    46 -0.00187760   -0.051092   -1.178213       2.201124  -3.820348   1.338821
    47  0.15521801    4.223697   97.400856       2.572222   1.980088  -1.209424
    48  0.07355067    2.001416   46.153781       2.694663  -2.973908  -1.049528
    49  0.12172299    3.312251   76.382391       2.643650   0.930368   1.253901
    50  0.10210579    2.778440   64.072404       2.918396  -2.444700  -2.901648
    51  0.13309473    3.621692   83.518274       3.782826   1.196327   1.201720
    52  0.11204315    3.048849   70.308194       6.050494   2.650194  -1.269319
    53  0.10723120    2.917909   67.288652       6.321643   0.693398  -2.202467
    54  0.10524613    2.863893   66.042997       6.317622   1.459546   1.117781
    55  0.09939662    2.704719   62.372371       6.529208  -0.459239   0.206751
    56  0.11533362    3.138387   72.373002       6.697026   1.742210  -1.720787
    57  0.10941750    2.977402   68.660575       6.854285   0.533485   0.601208
    58  0.12725106    3.462677   79.851311       7.275854   2.838819  -1.049528
    59  0.12357648    3.362687   77.545478       7.509283   1.860705   0.941503
 
 Number of surface maxima:    75
   #       a.u.         eV      kcal/mol           X/Y/Z coordinate(Angstrom)
     1  0.19958115    5.430879  125.239166      -7.538554   0.665780  -2.578176
     2  0.19255920    5.239802  120.832826      -7.186265  -2.634321  -2.496648
     3  0.15231549    4.144715   95.579493      -7.070497  -0.923111  -2.374016
     4  0.16114834    4.385069  101.122195      -6.146449   1.332749  -1.979406
     5  0.15299081    4.163092   96.003260      -5.567263  -2.992700  -1.954563
     6  0.21338775    5.806576  133.902947      -5.359693   4.909899   1.065143
     7  0.21377365    5.817077  134.145106      -5.083846   2.592548  -1.607183
     8  0.17008536    4.628258  106.730264      -4.951281  -0.655784  -0.801895
     9  0.17651909    4.803329  110.767493      -4.554669   3.469222   1.510756
    10  0.19297623    5.251150  121.094517      -4.422375  -1.633620   2.767453
    11  0.20160088    5.485839  126.506569      -4.290080  -3.904001  -1.414099
    12  0.16406518    4.464440  102.952539      -4.376341  -0.636126  -2.312368
    13  0.22825000    6.210998  143.229159      -4.282751   2.122388   2.404039
    14  0.18113880    4.929037  113.666406      -4.249882  -4.329506   1.091045
    15  0.17094829    4.651739  107.271760      -4.209901   5.428375  -0.014799
    16  0.21142252    5.753099  132.669745      -3.801579  -0.007121   1.439795
    17  0.17214478    4.684298  108.022569      -3.752063   1.604203  -1.174390
    18  0.21144770    5.753785  132.685548      -3.496315   6.548833  -1.049528
    19  0.18078047    4.919287  113.441552      -3.340930  -2.874006  -1.028757
    20  0.15117823    4.113769   94.865852      -3.099432  -0.127986   3.108918
    21  0.20153452    5.484033  126.464927      -2.950633   1.483339   1.352403
    22  0.17408609    4.737123  109.240762      -2.706591  -0.525450  -0.124657
    23  0.20954503    5.702010  131.491600      -2.833377   1.722580   3.710371
    24  0.19782327    5.383045  124.136081      -2.583285   2.106142   2.241205
    25  0.19752265    5.374865  123.947440      -2.629381   3.384834  -0.314888
    26  0.18895179    5.141640  118.569137      -2.516993  -3.646670  -0.891799
    27  0.16822312    4.577584  105.561690      -2.249606  -0.468810  -1.314117
    28  0.22127137    6.021100  138.849998      -2.263835   1.354517  -0.761786
    29  0.17294259    4.706007  108.523202      -2.066728   5.768373  -1.181823
    30  0.18259651    4.968704  114.581136      -1.908783  -1.874033  -1.896902
    31  0.19220006    5.230029  120.607457      -2.015581   4.117281   0.957790
    32  0.08568364    2.331570   53.767338      -1.505445  -3.285535   3.175214
    33  0.16466762    4.480834  103.330580      -1.384363  -0.912275   3.182204
    34  0.17991695    4.895789  112.899682      -1.278786  -0.050385   1.187119
    35  0.15924152    4.333182   99.925648      -1.172951  -2.567217   0.109967
    36  0.15260674    4.152640   95.762253      -0.984962  -1.049576   1.204198
    37  0.23064662    6.276214  144.733058      -0.910694   1.698510  -0.051439
    38  0.18364074    4.997119  115.236402      -0.887982   1.849972   2.506024
    39  0.23105468    6.287318  144.989124      -0.311493   2.399387   1.208228
    40  0.22571983    6.142149  141.641449      -0.417965   5.463956  -1.711000
    41  0.14121560    3.842672   88.614204      -0.033932  -1.827362  -1.017246
    42  0.17362538    4.724587  108.951661      -0.117953  -0.160431   0.079830
    43  0.20687300    5.629301  129.814875      -0.125613   4.168775  -0.917234
    44  0.04169818    1.134665   26.166026       0.229294  -4.714397  -1.799404
    45  0.14192219    3.861899   89.057591       0.187579  -3.447345   3.402717
    46  0.13150075    3.578317   82.518037       0.592700  -1.587967   2.105130
    47  0.09726517    2.646720   61.034870       0.617168  -3.308813   1.081434
    48  0.18569626    5.053052  116.526257       1.249238   0.925667  -1.189494
    49  0.18199771    4.952410  114.205383       1.197867   1.824315   1.395650
*   50  0.24992625    6.800839  156.831223       1.336621   3.778889  -1.446411
    51  0.11889529    3.235305   74.607986       1.655036  -2.238466  -0.235448
    52  0.15500546    4.217913   97.267478       1.641677  -0.665896   0.631823
    53  0.21084801    5.737466  132.309234       1.728777   2.715808  -0.190149
    54  0.13876613    3.776019   87.077136       1.870819  -2.522260  -2.389469
    55  0.14846360    4.039900   93.162392       2.428124  -1.515259  -0.388057
    56  0.24413979    6.643382  153.200162       2.838965   3.643412   0.906843
    57  0.17309897    4.710262  108.621332       3.049982  -0.127986  -2.176301
    58  0.21964365    5.976808  137.828587       3.142040   0.930368  -1.132842
    59  0.20309966    5.526623  127.447069       3.268698   0.271723   0.277898
    60  0.11614520    3.160472   72.882276       3.811305  -2.997168  -2.350900
    61  0.04854050    1.320854   30.459647       3.659485  -2.502176   2.002476
    62  0.19431144    5.287483  121.932374       4.096215   2.966537   0.429663
    63  0.16404735    4.463955  102.941354       4.503271  -3.038461  -0.590718
    64  0.18796056    5.114667  117.947134       4.589950  -1.708224  -3.171695
    65  0.16939767    4.609545  106.298730       4.717919  -1.326040  -0.898258
    66  0.17436539    4.744723  109.416024       4.592583  -0.784647  -1.947429
    67  0.21368602    5.814692  134.090113       5.212972   3.942139   0.924351
    68  0.17467922    4.753263  109.612956       5.499698   1.327251  -1.221946
    69  0.16838457    4.581977  105.663003       5.687604   0.665780   0.196733
    70  0.20063770    5.459629  125.902161       6.028875  -1.915188  -1.910670
    71  0.15728058    4.279822   98.695136       6.621378   3.179371   0.336740
    72  0.15071286    4.101105   94.573826       7.087230  -0.737958  -1.559839
    73  0.14987762    4.078378   94.049708       8.121289   1.321707  -0.535531
    74  0.19504960    5.307570  122.395577       8.260626   2.910132   0.130791
    75  0.19090671    5.194836  119.795869       8.648465  -0.004684  -1.332790
